Carbon atomic emission lines,,
From NIST online database,,
Intensity,Wavelength,charge
50,301.49,3
50,302.107,3
50,303.8889,2
50,307.7817,1
50,307.9703,1
50,307.989,1
50,308.115,1
50,308.178,1
50,308.2355,1
50,308.304,1
50,308.304,1
50,308.305,1
50,309.978,2
50,309.978,2
50,309.978,2
50,310.214,2
50,310.214,2
50,310.558,2
50,312.085,1
50,312.2116,1
50,312.4149,1
50,312.5417,1
50,314.594,2
50,315.1857,2
50,315.5073,2
50,316.1897,2
50,316.5462,1
50,316.5974,1
50,316.7935,1
50,317.001,2
50,318.261,2
50,318.35,1
50,318.77,1
50,325.8018,2
50,325.9537,2
50,326.227,2
50,328.883,2
50,328.883,2
50,328.883,2
50,329.162,2
50,329.162,2
50,329.317,2
50,329.8012,1
50,329.8089,1
50,329.9196,1
50,329.9273,1
50,335.7787,2
50,335.7907,2
50,335.7996,2
50,336.089,1
50,336.1051,1
50,336.1721,1
50,338.522,3
50,338.535,3
50,349.824,2
50,350.6783,2
50,352.666,3
50,358.1757,1
50,358.4971,1
50,358.5803,1
50,358.7652,1
50,358.8905,1
50,358.9651,1
50,359.0758,1
50,359.0876,1
50,360.8778,2
50,360.9052,2
50,360.9071,2
50,360.962,2
50,360.9676,2
50,360.9695,2
50,365.329,2
50,365.5966,2
50,365.6108,2
50,365.6214,2
50,366.0933,2
50,366.1075,2
50,370.3695,2
50,370.791,3
50,370.845,3
50,371.015,3
50,371.03,3
50,371.032,3
50,378.943,2
50,380.612,2
50,380.612,2
50,380.612,2
50,380.66,2
50,380.66,2
50,380.695,2
50,383.1726,1
50,383.5716,1
50,383.6699,1
50,383.8913,2
50,384.451,2
350,387.619,1
350,387.641,1
350,387.666,1
50,388.3816,2
50,388.5938,2
50,388.6145,2
50,388.9137,2
50,388.9463,2
50,388.967,2
50,391.491,2
50,391.491,2
50,391.491,2
50,391.885,2
50,391.885,2
570,391.8968,1
800,392.0681,1
50,392.105,2
50,392.208,1
50,393.428,3
50,393.489,3
50,400.9882,1
50,401.7272,1
50,402.1166,1
50,402.616,2
50,405.449,2
150,405.6061,2
200,406.794,2
250,406.8916,2
250,406.8916,2
250,407.026,2
50,407.0306,2
50,407.0306,2
250,407.452,1
350,407.585,1
50,412.1845,2
50,415.2514,2
50,415.6504,2
50,415.6741,2
150,416.2877,2
50,416.3249,2
50,416.3487,2
50,416.624,2
50,416.6973,2
50,417.3088,2
250,418.69,2
50,421.906,3
50,421.934,3
50,424.7311,2
50,425.21,2
50,425.5304,2
50,425.5382,2
50,425.5409,2
50,425.6373,2
50,425.6451,2
50,425.675,2
50,425.7894,2
50,425.935,2
800,426.7001,1
50,426.7183,1
1000,426.7261,1
50,428.198,2
50,428.198,2
50,428.198,2
50,428.223,2
50,428.223,2
50,428.263,2
50,429.66,2
50,430.6341,1
50,430.7581,1
50,430.9313,1
50,430.9579,1
50,431.2802,1
50,431.3106,1
50,431.7265,1
50,431.8606,1
50,432.1657,1
50,432.3107,1
200,432.5561,2
50,432.5832,1
50,432.6164,1
50,437.1367,0
50,437.9476,2
50,437.9934,2
50,438.0569,2
50,438.2897,2
50,438.3533,2
50,438.8018,2
50,439.052,2
50,440.5751,2
50,444.034,3
50,444.15,3
50,444.174,3
50,444.315,2
50,451.5352,2
50,451.5811,2
50,451.6788,2
50,462.157,0
50,462.7346,0
50,463.763,1
50,463.8919,1
50,463.9068,1
600,464.7418,2
520,465.0246,2
50,465.1016,2
375,465.1473,2
50,465.2048,2
200,465.83,3
50,465.9058,2
50,466.3642,2
200,466.586,2
50,467.049,2
50,467.049,2
50,467.049,2
50,467.122,2
50,467.122,2
50,467.174,2
50,467.3953,2
50,472.4174,2
50,472.4708,2
50,472.5447,2
50,473.0181,2
50,473.0921,2
50,473.426,0
50,473.4917,0
50,473.5163,0
50,473.5464,1
50,473.599,3
50,473.626,3
50,473.635,3
50,473.7966,1
50,473.8213,0
50,473.846,0
50,473.9662,2
50,474.2561,0
50,474.4766,1
50,474.7279,1
50,476.2313,0
50,476.2533,0
50,476.6673,0
50,477.0027,0
200,477.1742,0
50,477.5898,0
50,478.548,3
50,478.587,3
50,478.637,3
50,478.89,3
50,478.979,3
50,481.2921,0
50,481.7373,0
50,482.6796,0
50,486.258,1
50,486.7066,1
50,491.486,4
200,493.2049,0
5,494.388,4
5,494.456,4
50,500.657,4
50,501.1264,0
50,501.2028,0
50,501.2277,0
50,501.662,3
50,501.7086,0
50,501.7786,0
50,501.8063,0
50,501.84,3
50,502.3843,0
50,502.4919,0
50,503.2128,1
50,503.5943,1
50,503.9057,0
50,504.0124,0
50,504.0709,1
50,504.1481,0
50,504.1761,0
50,504.1789,0
50,504.895,2
200,505.2167,0
50,505.3515,0
50,512.0076,1
50,512.1828,1
50,512.5208,1
50,512.6963,1
350,513.2947,1
350,513.3282,1
50,513.7257,1
50,513.9174,1
350,514.3495,1
570,514.5165,1
400,515.1085,1
50,515.852,2
50,515.94,2
50,516.003,2
50,517.581,2
50,524.4051,1
50,524.4665,2
50,524.9112,2
50,524.9528,1
50,524.9898,1
50,525.3559,1
50,525.3575,2
50,525.6089,1
50,525.7236,1
50,525.9056,1
50,525.9664,1
50,525.9758,1
50,526.8948,0
50,527.2522,2
50,529.0995,0
50,529.6932,0
50,530.087,0
50,530.236,0
50,530.6315,0
50,530.683,0
50,533.2888,1
50,533.4789,1
50,533.7395,2
50,534.1474,2
50,534.5881,2
50,534.8815,2
50,535.3235,2
50,535.9925,2
50,536.834,1
50,536.845,1
50,536.854,1
50,537.6194,2
300,538.0337,0
50,540.796,2
50,540.796,2
50,540.796,2
50,540.836,2
50,540.836,2
50,540.899,2
50,548.164,2
50,553.4259,0
50,553.5353,1
50,553.7609,1
50,554.0755,0
50,554.5055,0
50,554.7267,0
50,555.1022,0
50,555.1577,0
50,560.3728,0
50,561.4807,0
50,561.6478,0
50,564.055,1
250,564.807,1
350,566.246,1
50,566.894,0
450,569.592,2
50,575.811,2
50,578.072,0
50,578.403,0
50,578.486,0
50,578.815,0
50,579.173,0
50,579.312,0
50,579.41,0
50,579.447,0
50,579.502,0
50,580.023,0
50,580.06,0
250,580.131,3
50,580.52,0
50,580.581,0
200,581.197,3
50,581.272,0
50,581.351,0
50,581.77,0
50,581.831,1
50,581.949,0
50,582.298,1
50,582.317,2
50,582.318,1
50,582.464,0
150,582.642,2
50,582.785,1
50,583.508,1
50,583.637,1
50,584.069,2
50,584.106,2
50,584.132,2
50,584.362,1
50,585.606,1
50,585.834,2
50,586.325,2
50,587.168,2
50,587.21,2
50,587.734,0
50,587.955,1
50,588.056,2
50,588.604,1
50,588.928,1
50,588.952,0
570,588.978,1
350,589.16,1
50,589.202,1
50,589.407,2
50,589.445,2
50,589.528,2
50,589.643,2
50,596.932,0
50,598.64,0
50,599.098,0
50,599.35,0
50,599.4,0
50,599.605,0
200,600.112,0
50,600.298,0
50,600.367,0
250,600.602,0
110,600.718,0
150,601.068,0
50,601.223,0
50,601.317,0
300,601.321,0
250,601.483,0
50,601.645,0
50,601.99,0
50,602.856,0
50,603.202,0
50,606.209,0
50,606.555,0
50,606.665,0
50,607.083,0
50,607.42,0
50,607.839,0
50,609.529,1
50,609.851,1
50,610.003,0
50,610.256,1
50,610.766,0
50,610.852,0
50,611.315,0
50,611.584,0
50,612.081,0
50,614.787,2
50,614.928,2
50,615.416,2
50,615.512,2
50,615.669,2
50,616.001,2
50,616.396,2
50,616.755,2
50,620.556,2
50,625.718,1
50,625.956,1
50,625.98,1
50,629.236,0
50,635.077,2
50,639.797,0
50,640.45,3
50,640.495,3
50,641.355,0
50,641.754,0
50,646.029,2
50,651.496,1
50,652.264,1
50,652.293,1
50,656.873,0
800,657.805,1
570,658.288,1
50,658.627,0
200,658.761,0
50,659.146,0
50,659.153,3
50,659.257,3
50,659.524,0
50,659.685,0
50,660.241,0
50,660.577,0
50,661.135,0
50,665.461,0
50,665.552,0
50,666.274,0
50,667.185,0
50,667.412,0
50,667.964,0
50,668.397,0
50,668.879,0
50,671.132,0
50,672.313,1
50,672.332,1
50,672.345,1
50,672.456,1
50,672.707,1
50,672.726,1
50,672.748,2
50,673.104,2
50,673.107,1
50,673.358,1
50,673.4,1
50,673.861,1
50,674.215,2
50,674.243,1
150,674.439,2
50,675.054,1
50,675.516,1
50,676.217,2
50,677.339,2
50,677.495,2
50,677.994,1
50,678.059,1
250,678.391,1
50,678.676,2
50,678.721,1
50,679.147,1
50,679.336,2
50,679.81,1
50,680.069,1
50,681.228,1
50,682.812,0
50,685.118,2
50,685.368,2
50,685.724,2
50,686.269,2
50,686.878,2
50,687.053,2
50,687.204,2
50,687.937,2
50,688.05,2
50,688.11,2
50,688.207,2
50,689.811,2
50,689.969,2
50,697.028,0
50,702.213,0
150,703.725,2
50,704.625,1
50,705.309,1
50,705.689,0
50,706.368,1
50,706.589,0
50,707.11,0
50,707.486,0
50,707.648,0
50,708.548,0
50,708.783,0
50,708.946,0
50,709.324,0
50,710.012,0
50,710.893,0
50,711.147,0
50,711.248,1
50,711.304,1
250,711.318,0
50,711.517,0
250,711.518,0
250,711.563,1
200,711.699,0
50,711.966,0
50,711.976,1
350,711.991,1
50,712.22,0
50,712.572,1
50,713.211,0
50,713.247,1
50,713.41,1
50,713.918,0
50,714.424,1
50,715.773,2
50,720.227,0
50,721.601,0
800,723.133,1
1000,723.642,1
50,723.717,1
50,724.132,1
50,725.053,3
50,725.179,3
50,733.835,0
50,735.388,2
50,736.474,0
50,743.311,2
50,743.354,2
50,743.354,2
50,743.413,2
50,743.413,2
50,743.413,2
50,747.331,0
50,747.618,0
50,748.345,0
50,748.656,2
50,748.656,2
50,748.664,2
50,748.672,2
50,748.68,2
50,748.696,2
50,750.889,1
50,751.949,1
50,751.993,1
50,753.057,1
50,757.67,2
50,757.815,2
50,758.641,2
50,759.227,2
50,759.227,2
50,759.531,2
50,761.21,0
50,761.245,2
150,761.275,2
50,761.291,2
50,761.291,2
50,762.599,2
50,763.491,0
50,763.497,2
50,766.244,0
50,768.519,0
50,769.249,0
50,770.743,2
90,772.62,3
50,777.176,2
50,778.041,2
50,779.6,2
50,783.264,0
50,783.71,0
50,784.025,0
50,784.824,0
50,785.286,0
200,786.088,0
50,789.22,0
50,794.662,3
50,794.738,3
50,794.814,3
50,797.565,1
50,798.196,0
50,798.761,1
50,798.79,0
50,801.5,0
50,801.857,0
50,802.115,2
50,802.125,0
50,802.655,0
50,802.818,0
50,802.885,1
50,803.773,1
50,803.94,1
50,804.534,0
50,804.831,1
200,805.862,0
50,806.21,1
50,806.236,0
50,806.28,1
50,807.043,0
50,807.664,1
50,807.801,0
50,807.848,0
50,808.379,0
50,815.564,0
50,818.268,0
300,819.648,2
50,825.527,2
50,825.557,2
50,825.567,2
50,827.204,2
50,827.233,2
50,829.654,2
50,831.704,2
50,832.116,2
150,833.299,2
520,833.515,0
50,834.16,2
50,834.795,2
50,835.786,2
50,835.872,2
50,836.796,2
50,837.132,2
50,837.504,2
50,837.922,3
50,838.196,3
50,839.244,2
50,839.403,2
50,839.74,2
50,840.892,2
300,850.032,2
50,858.209,2
50,858.209,2
50,858.209,2
50,858.231,2
50,858.231,2
50,858.262,2
50,865.214,2
50,865.225,2
50,865.257,2
50,865.293,2
50,865.305,2
50,865.353,2
50,868.252,1
50,869.67,1
50,872.713,0
50,875.307,0
50,887.336,0
50,891.863,0
50,893.165,2
50,894.257,2
50,897.284,0
250,906.144,0
200,906.249,0
200,907.829,0
250,908.851,0
450,909.483,0
300,911.181,0
50,918.283,0
50,923.112,1
50,923.682,1
50,923.83,1
50,925.101,1
50,926.726,1
50,933.101,2
50,935.837,2
50,939.852,0
800,940.573,0
50,940.914,2
50,941.207,2
50,941.307,0
50,941.329,0
50,941.419,2
50,943.562,0
50,943.869,0
50,944.369,0
50,945.028,0
50,945.521,0
50,956.553,2
50,957.395,2
50,958.018,2
50,959.332,2
50,959.781,2
150,960.303,0
50,961.703,2
250,962.078,0
50,962.76,2
50,962.762,0
50,962.992,0
50,965.147,2
300,965.843,0
50,969.648,2
50,969.654,2
50,969.957,2
50,970.11,2
50,970.541,2
50,970.644,2
50,971.509,2
50,971.775,2
50,971.879,2
50,971.962,2
50,973.327,2
50,975.658,2
50,980.832,0
50,982.413,0
50,982.413,0
50,985.026,0
50,985.026,0
50,985.94,2
50,986.306,1
50,986.846,1
50,987.078,1
50,987.899,1
50,988.268,1
50,988.44,1
50,989.26,1
50,990.083,1
50,994.135,0
