Sodium atomic emission lines,,
From NIST online database,,
Intensity,Wavelength,charge
550,300.415,1
750,300.744,1
750,300.914,1
600,301.54,1
550,305.367,1
550,305.535,1
550,305.616,1
550,305.738,1
550,305.795,1
550,305.872,1
700,306.025,1
800,306.135,1
500,306.438,1
500,306.622,1
500,306.654,1
550,307.433,1
550,307.832,1
550,308.025,1
550,308.706,1
550,309.204,1
550,309.273,1
650,309.445,1
650,309.555,1
500,310.358,1
500,310.44,1
500,311.369,1
1700,312.442,1
600,312.521,1
600,312.938,1
2500,313.548,1,
1700,313.786,1,
950,314.571,1,
2000,314.928,1,
2000,316.374,1,
700,317.509,1,
1000,317.906,1,
1700,318.979,1,
1600,321.219,1,
700,323.493,1,
1500,325.796,1,
650,326.021,1,
950,327.422,1,
1700,328.56,1,
1700,330.135,1,
1200,330.2369,0,
600,330.2978,0,
1500,330.496,1,
1000,331.804,1,
950,332.769,1,
50,342.686,0,
1500,353.305,1,
1200,363.127,1,
850,371.107,1,
300,411.37,1,
250,412.308,1,
10,419.3012,0,
10,419.6039,0,
10,419.6039,0,
10,419.9138,0,
10,420.2174,0,
10,421.3001,0,
10,421.6057,0,
10,421.6057,0,
10,422.0899,0,
10,422.3966,0,
250,423.326,1,
6,423.8988,0,
250,424.09,1,
10,424.2081,0,
10,424.2081,0,
1,424.9411,0,
2,425.252,0,
15,427.3643,0,
20,427.6787,0,
20,427.6787,0,
2,428.784,0,
3,429.1004,0,
250,429.248,1,
250,429.286,1,
250,430.881,1,
250,430.904,1,
250,432.091,1,
30,432.1401,0,
40,432.4616,0,
40,432.4616,0,
250,433.729,1,
3,434.1489,0,
250,434.411,1,
5,434.4734,0,
200,436.86,1,
200,437.522,1,
200,438.749,1,
40,439.0023,0,
250,439.281,1,
60,439.334,0,
60,439.334,0,
200,440.512,1,
5,441.9884,0,
8,442.3247,0,
200,444.67,1,
200,444.741,1,
200,445.474,1,
200,445.523,1,
200,445.721,1,
200,447.463,1,
200,447.88,1,
200,448.167,1,
200,449.015,1,
200,449.087,1,
60,449.418,0,,,,,,,,,,,
100,449.7657,0,,,,,,,,,,,
100,449.7657,0,,,,,,,,,,,
200,449.962,1,,,,,,,,,,,
200,450.697,1,,,,,,,,,,,
200,451.921,1,,,,,,,,,,,
200,452.498,1,,,,,,,,,,,
200,453.332,1,,,,,,,,,,,
10,454.1633,0,,,,,,,,,,,
15,454.5184,0,,,,,,,,,,,
200,455.153,1,,,,,,,,,,,
160,459.092,1,,,,,,,,,,,
120,466.4811,0,,,,,,,,,,,
200,466.8557,0,,,,,,,,,,,
200,466.8559,0,,,,,,,,,,,
160,472.223,1,,,,,,,,,,,
160,473.11,1,
160,474.167,1,
20,474.7941,0,
30,475.1822,0,
160,476.879,1,
100,478.879,1,
200,497.8541,0,
10,498.2808,0,
400,498.2813,0,
40,514.8838,0,
80,515.3402,0,
100,519.165,1,
80,520.855,1,
70,540.046,1,
90,541.455,1,
280,568.2633,0,
70,568.8193,0,
560,568.8205,0,
8000,588.995,0,
4000,589.5924,0,
120,615.4225,0,
240,616.0747,0,
60,617.525,1,
70,619.926,1,
70,623.468,1,
80,626.001,1,
80,627.474,1,
70,636.115,1,
70,636.641,1,
90,651.421,1,
80,652.468,1,
130,653.07,1,
130,654.404,1,
130,654.575,1,
80,655.243,1,
10,663.1952,0,
10,663.1987,0,
10,668.0215,0,
10,668.026,0,
10,674.3085,0,
10,674.3144,0,
10,682.7271,0,
10,682.7351,0,
10,694.3953,0,
10,694.4066,0,
